SpectraSuite Data File
++++++++++++++++++++++++++++++++++++
Date: Wed Dec 31 14:13:16 HST 1969
User: geoff
Dark Spectrum Present: No
Reference Spectrum Present: No
Number of Sampled Component Spectra: 1
Spectrometers: USB2G37166
Integration Time (usec): 100000 (USB2G37166)
Spectra Averaged: 10 (USB2G37166)
Boxcar Smoothing: 0 (USB2G37166)
Correct for Electrical Dark: No (USB2G37166)
Strobe/Lamp Enabled: No (USB2G37166)
Correct for Detector Non-linearity: No (USB2G37166)
Correct for Stray Light: No (USB2G37166)
Number of Pixels in Processed Spectrum: 651
>>>>>Begin Processed Spectral Data<<<<<
350.00	134.80
351.00	133.73
352.00	133.81
353.00	136.71
354.00	136.61
355.00	138.09
356.00	138.40
357.00	138.54
358.00	138.37
359.00	140.28
360.00	140.68
361.00	142.00
362.00	141.38
363.00	142.60
364.00	142.63
365.00	142.63
366.00	144.17
367.00	144.57
368.00	144.61
369.00	145.31
370.00	144.82
371.00	145.70
372.00	146.39
373.00	147.61
374.00	150.99
375.00	150.79
376.00	152.18
377.00	154.75
378.00	162.35
379.00	159.13
380.00	163.32
381.00	167.51
382.00	166.47
383.00	167.07
384.00	169.44
385.00	171.19
386.00	169.10
387.00	171.57
388.00	173.67
389.00	177.44
390.00	176.16
391.00	176.76
392.00	177.99
393.00	180.49
394.00	183.88
395.00	188.11
396.00	189.69
397.00	194.19
398.00	198.40
399.00	203.03
400.00	207.06
401.00	218.64
402.00	218.93
403.00	233.10
404.00	233.68
405.00	243.05
406.00	242.88
407.00	249.63
408.00	255.12
409.00	255.13
410.00	256.92
411.00	269.91
412.00	259.33
413.00	262.81
414.00	263.02
415.00	271.17
416.00	267.14
417.00	276.69
418.00	273.88
419.00	285.33
420.00	296.87
421.00	303.36
422.00	305.39
423.00	311.99
424.00	328.68
425.00	336.39
426.00	352.58
427.00	360.63
428.00	386.03
429.00	382.84
430.00	413.13
431.00	397.29
432.00	420.94
433.00	423.73
434.00	446.44
435.00	437.14
436.00	436.26
437.00	441.13
438.00	447.19
439.00	428.20
440.00	442.54
441.00	446.81
442.00	451.73
443.00	452.77
444.00	441.75
445.00	454.30
446.00	489.52
447.00	494.31
448.00	483.63
449.00	513.93
450.00	513.71
451.00	522.42
452.00	537.35
453.00	542.13
454.00	576.91
455.00	587.86
456.00	603.32
457.00	635.97
458.00	641.95
459.00	659.59
460.00	649.95
461.00	664.11
462.00	691.03
463.00	656.15
464.00	677.90
465.00	662.73
466.00	684.77
467.00	666.43
468.00	684.82
469.00	652.35
470.00	651.86
471.00	647.36
472.00	660.53
473.00	650.29
474.00	668.88
475.00	673.04
476.00	690.83
477.00	673.55
478.00	662.41
479.00	669.56
480.00	692.81
481.00	742.84
482.00	741.04
483.00	770.13
484.00	807.16
485.00	838.18
486.00	870.19
487.00	934.17
488.00	934.95
489.00	975.85
490.00	1045.80
491.00	1036.10
492.00	1130.63
493.00	1123.81
494.00	1129.60
495.00	1216.11
496.00	1217.69
497.00	1261.22
498.00	1277.86
499.00	1294.35
500.00	1313.67
501.00	1334.94
502.00	1360.09
503.00	1285.83
504.00	1331.30
505.00	1281.02
506.00	1377.39
507.00	1314.01
508.00	1330.57
509.00	1299.72
510.00	1292.58
511.00	1365.31
512.00	1303.88
513.00	1313.15
514.00	1275.54
515.00	1303.70
516.00	1297.49
517.00	1311.14
518.00	1375.51
519.00	1374.01
520.00	1392.86
521.00	1384.85
522.00	1352.97
523.00	1373.73
524.00	1295.23
525.00	1394.21
526.00	1461.33
527.00	1465.19
528.00	1470.46
529.00	1517.61
530.00	1504.22
531.00	1555.69
532.00	1580.16
533.00	1585.21
534.00	1703.66
535.00	1739.47
536.00	1745.58
537.00	1722.13
538.00	1788.41
539.00	1799.53
540.00	1767.22
541.00	1874.30
542.00	1933.95
543.00	1862.26
544.00	1845.04
545.00	1839.00
546.00	1844.91
547.00	1935.55
548.00	1977.53
549.00	2086.55
550.00	2062.96
551.00	1836.97
552.00	1978.90
553.00	1996.76
554.00	1921.30
555.00	1901.99
556.00	1793.33
557.00	1831.15
558.00	1967.36
559.00	1941.09
560.00	1874.87
561.00	1988.83
562.00	1836.73
563.00	1844.83
564.00	1948.42
565.00	1775.56
566.00	1761.40
567.00	1802.87
568.00	1727.45
569.00	1869.89
570.00	1823.93
571.00	1899.36
572.00	1882.10
573.00	1894.76
574.00	1890.14
575.00	2017.80
576.00	1832.91
577.00	1885.38
578.00	1891.66
579.00	1904.07
580.00	1949.22
581.00	1974.90
582.00	2079.67
583.00	2042.02
584.00	2086.71
585.00	2017.46
586.00	2093.99
587.00	1929.24
588.00	2128.42
589.00	2152.62
590.00	2096.29
591.00	2261.52
592.00	2354.08
593.00	2221.57
594.00	2311.47
595.00	2389.65
596.00	2351.80
597.00	2310.24
598.00	2373.99
599.00	2578.50
600.00	2416.11
601.00	2384.98
602.00	2509.38
603.00	2312.16
604.00	2364.92
605.00	2422.69
606.00	2368.52
607.00	2374.07
608.00	2421.96
609.00	2385.39
610.00	2351.31
611.00	2464.99
612.00	2404.54
613.00	2281.22
614.00	2021.92
615.00	2255.54
616.00	2156.36
617.00	2240.11
618.00	2190.79
619.00	2131.69
620.00	2285.89
621.00	2147.78
622.00	2142.30
623.00	2202.54
624.00	1994.66
625.00	2068.71
626.00	2309.35
627.00	2067.00
628.00	2136.67
629.00	2282.40
630.00	1952.90
631.00	2142.13
632.00	2192.59
633.00	2111.16
634.00	2154.30
635.00	2164.14
636.00	2094.90
637.00	2214.82
638.00	2134.54
639.00	2083.98
640.00	2050.84
641.00	2187.86
642.00	2292.70
643.00	2158.31
644.00	2184.63
645.00	2160.21
646.00	2178.45
647.00	2259.68
648.00	2344.85
649.00	2380.04
650.00	2441.32
651.00	2291.35
652.00	2397.76
653.00	2167.21
654.00	2295.44
655.00	2218.69
656.00	2191.72
657.00	2397.57
658.00	2324.37
659.00	2200.24
660.00	2145.28
661.00	2309.09
662.00	2377.96
663.00	2094.63
664.00	2623.69
665.00	2191.29
666.00	2054.79
667.00	2290.57
668.00	2202.08
669.00	2269.15
670.00	1978.35
671.00	2113.14
672.00	2304.17
673.00	2049.96
674.00	2039.71
675.00	1917.76
676.00	2111.16
677.00	2025.07
678.00	2060.47
679.00	1777.48
680.00	2040.99
681.00	2070.52
682.00	2078.12
683.00	1746.35
684.00	1871.04
685.00	1924.96
686.00	1808.54
687.00	1880.50
688.00	1938.70
689.00	1805.69
690.00	1848.89
691.00	2006.22
692.00	1867.04
693.00	1840.13
694.00	1923.95
695.00	1775.73
696.00	1788.03
697.00	1792.19
698.00	1894.20
699.00	1745.06
700.00	1910.42
701.00	1814.57
702.00	1903.80
703.00	1915.48
704.00	1774.33
705.00	1948.68
706.00	1674.85
707.00	1939.43
708.00	1897.77
709.00	1828.52
710.00	1997.97
711.00	1847.97
712.00	1817.67
713.00	1868.32
714.00	1917.58
715.00	1780.27
716.00	1943.19
717.00	2046.35
718.00	1897.19
719.00	1760.32
720.00	1860.07
721.00	1878.71
722.00	1773.52
723.00	1819.75
724.00	1717.59
725.00	1672.14
726.00	1891.35
727.00	1913.64
728.00	2017.24
729.00	1800.30
730.00	2013.74
731.00	1843.29
732.00	2024.12
733.00	1962.57
734.00	1881.73
735.00	1868.32
736.00	1852.26
737.00	1949.48
738.00	1880.59
739.00	1888.37
740.00	1878.23
741.00	1772.25
742.00	1892.03
743.00	1716.07
744.00	1856.30
745.00	1862.68
746.00	1682.89
747.00	1932.42
748.00	1729.86
749.00	1674.96
750.00	1675.65
751.00	1640.23
752.00	1664.42
753.00	1524.93
754.00	1531.95
755.00	1601.07
756.00	1717.54
757.00	1502.63
758.00	1501.05
759.00	1368.66
760.00	1532.23
761.00	1319.64
762.00	1370.70
763.00	1443.41
764.00	1490.46
765.00	1384.81
766.00	1525.45
767.00	1279.38
768.00	1313.84
769.00	1373.32
770.00	1346.26
771.00	1214.27
772.00	1336.82
773.00	1317.88
774.00	1359.96
775.00	1266.95
776.00	1312.38
777.00	1250.17
778.00	1331.19
779.00	1242.52
780.00	1213.65
781.00	1347.14
782.00	1320.64
783.00	1211.43
784.00	1092.61
785.00	1201.64
786.00	1090.63
787.00	1145.75
788.00	1055.17
789.00	1113.90
790.00	1174.16
791.00	1106.17
792.00	1085.95
793.00	1125.16
794.00	1048.85
795.00	1073.59
796.00	1148.05
797.00	1116.67
798.00	1006.41
799.00	1076.42
800.00	1165.59
801.00	1053.27
802.00	1161.47
803.00	1148.43
804.00	1252.22
805.00	1087.01
806.00	1157.16
807.00	1068.39
808.00	1069.17
809.00	1267.62
810.00	1072.93
811.00	1202.04
812.00	1239.92
813.00	1196.79
814.00	1140.19
815.00	1132.33
816.00	1171.71
817.00	1177.61
818.00	1204.66
819.00	1308.73
820.00	1152.49
821.00	1113.31
822.00	1176.84
823.00	1180.99
824.00	989.33
825.00	1121.66
826.00	1112.50
827.00	1123.62
828.00	1107.28
829.00	1006.50
830.00	1022.56
831.00	1074.88
832.00	1075.67
833.00	1089.85
834.00	977.14
835.00	1091.70
836.00	1105.85
837.00	1049.78
838.00	1108.36
839.00	936.05
840.00	988.47
841.00	1058.14
842.00	895.70
843.00	883.41
844.00	946.58
845.00	947.59
846.00	970.47
847.00	1007.67
848.00	871.61
849.00	930.93
850.00	902.50
851.00	953.34
852.00	953.57
853.00	946.52
854.00	864.82
855.00	735.72
856.00	849.88
857.00	939.31
858.00	892.93
859.00	849.12
860.00	816.91
861.00	755.23
862.00	784.05
863.00	858.50
864.00	831.85
865.00	755.00
866.00	695.04
867.00	774.53
868.00	709.89
869.00	677.08
870.00	685.14
871.00	711.56
872.00	686.80
873.00	647.61
874.00	626.86
875.00	610.04
876.00	568.38
877.00	572.48
878.00	599.33
879.00	579.38
880.00	625.38
881.00	593.61
882.00	538.69
883.00	577.99
884.00	583.36
885.00	573.36
886.00	571.81
887.00	651.27
888.00	668.05
889.00	588.12
890.00	577.01
891.00	557.13
892.00	576.71
893.00	612.40
894.00	548.76
895.00	602.04
896.00	585.26
897.00	574.78
898.00	660.04
899.00	581.26
900.00	598.00
901.00	625.81
902.00	592.36
903.00	600.16
904.00	564.39
905.00	571.00
906.00	648.62
907.00	564.69
908.00	602.24
909.00	557.64
910.00	596.53
911.00	518.20
912.00	534.65
913.00	520.24
914.00	530.75
915.00	560.94
916.00	506.09
917.00	478.76
918.00	488.19
919.00	489.28
920.00	515.42
921.00	519.60
922.00	499.27
923.00	503.39
924.00	462.94
925.00	475.24
926.00	500.26
927.00	466.23
928.00	450.19
929.00	412.28
930.00	430.07
931.00	420.43
932.00	423.35
933.00	438.50
934.00	418.18
935.00	389.56
936.00	383.27
937.00	366.04
938.00	350.97
939.00	331.09
940.00	328.02
941.00	300.59
942.00	283.70
943.00	272.25
944.00	275.76
945.00	266.07
946.00	268.84
947.00	295.00
948.00	300.98
949.00	284.92
950.00	264.54
951.00	276.05
952.00	282.74
953.00	282.49
954.00	322.10
955.00	293.14
956.00	308.11
957.00	300.30
958.00	293.79
959.00	303.30
960.00	293.09
961.00	304.46
962.00	312.94
963.00	311.44
964.00	306.19
965.00	349.45
966.00	304.33
967.00	282.37
968.00	278.64
969.00	269.71
970.00	258.41
971.00	258.45
972.00	253.87
973.00	261.66
974.00	273.58
975.00	287.40
976.00	254.70
977.00	262.35
978.00	267.90
979.00	256.49
980.00	261.88
981.00	230.93
982.00	237.33
983.00	251.97
984.00	224.40
985.00	220.23
986.00	223.05
987.00	215.95
988.00	214.09
989.00	223.60
990.00	213.99
991.00	199.56
992.00	198.29
993.00	204.52
994.00	195.65
995.00	186.66
996.00	191.21
997.00	185.22
998.00	190.95
999.00	194.04
1000.00	189.47